Main-Trace,Start Freq(Hz),Stop Freq(Hz),Center Freq(Hz),Span Freq(Hz)
Spectrum,239997500000,240002500000,240000000000,5000000,

Analysis Start Time(ms),Analysis Time Length(ms),Capture Time(ms),ATT(dB)
0,50,50,60

Ref Level(dBm),Pre-Amp
10.00, Off

RBW(Hz),Marker Result
30000,Integration

Detection,Trace Point
Average,1025

Storage Mode
Off

Wave Data(dBm)
-44.031
-44.109
-44.154
-44.175
-44.149
-44.024
-43.743
-43.287
-42.727
-42.208
-41.877
-41.825
-42.062
-42.515
-43.052
-43.536
-43.889
-44.108
-44.231
-44.295
-44.330
-44.354
-44.379
-44.405
-44.429
-44.448
-44.461
-44.471
-44.478
-44.478
-44.465
-44.434
-44.386
-44.329
-44.279
-44.245
-44.231
-44.227
-44.222
-44.207
-44.187
-44.173
-44.172
-44.179
-44.176
-44.151
-44.105
-44.056
-44.028
-44.030
-44.056
-44.092
-44.127
-44.156
-44.178
-44.194
-44.206
-44.217
-44.225
-44.230
-44.231
-44.231
-44.230
-44.226
-44.212
-44.182
-44.139
-44.092
-44.057
-44.048
-44.066
-44.105
-44.152
-44.193
-44.221
-44.227
-44.202
-44.148
-44.075
-44.006
-43.961
-43.951
-43.968
-44.000
-44.029
-44.044
-44.040
-44.017
-43.980
-43.940
-43.914
-43.915
-43.949
-44.005
-44.062
-44.101
-44.108
-44.089
-44.060
-44.040
-44.039
-44.043
-44.029
-43.979
-43.894
-43.795
-43.706
-43.646
-43.621
-43.626
-43.656
-43.705
-43.764
-43.824
-43.873
-43.902
-43.907
-43.889
-43.855
-43.811
-43.765
-43.720
-43.679
-43.644
-43.620
-43.605
-43.594
-43.583
-43.574
-43.576
-43.591
-43.613
-43.634
-43.648
-43.652
-43.652
-43.650
-43.647
-43.643
-43.638
-43.638
-43.645
-43.657
-43.669
-43.673
-43.662
-43.639
-43.604
-43.563
-43.519
-43.480
-43.451
-43.436
-43.436
-43.445
-43.456
-43.464
-43.464
-43.457
-43.451
-43.453
-43.466
-43.480
-43.484
-43.472
-43.451
-43.433
-43.424
-43.419
-43.408
-43.393
-43.383
-43.387
-43.405
-43.425
-43.435
-43.438
-43.441
-43.455
-43.475
-43.490
-43.483
-43.447
-43.382
-43.297
-43.193
-43.063
-42.901
-42.712
-42.527
-42.394
-42.353
-42.410
-42.534
-42.674
-42.790
-42.870
-42.925
-42.972
-43.018
-43.063
-43.100
-43.128
-43.148
-43.164
-43.179
-43.194
-43.202
-43.195
-43.167
-43.120
-43.065
-43.012
-42.966
-42.924
-42.880
-42.835
-42.790
-42.747
-42.702
-42.658
-42.620
-42.591
-42.572
-42.558
-42.548
-42.542
-42.541
-42.544
-42.547
-42.547
-42.543
-42.533
-42.518
-42.497
-42.467
-42.425
-42.364
-42.271
-42.114
-41.819
-41.264
-40.370
-39.225
-38.065
-37.140
-36.611
-36.532
-36.824
-37.208
-37.204
-36.515
-35.426
-34.440
-33.878
-33.873
-34.452
-35.572
-37.104
-38.790
-40.255
-41.191
-41.600
-41.695
-41.664
-41.604
-41.548
-41.504
-41.471
-41.449
-41.434
-41.412
-41.373
-41.308
-41.230
-41.155
-41.102
-41.074
-41.063
-41.058
-41.049
-41.038
-41.031
-41.031
-41.029
-41.013
-40.973
-40.910
-40.838
-40.765
-40.698
-40.637
-40.583
-40.539
-40.505
-40.475
-40.447
-40.416
-40.383
-40.347
-40.309
-40.271
-40.233
-40.191
-40.144
-40.088
-40.021
-39.946
-39.871
-39.804
-39.752
-39.715
-39.686
-39.656
-39.618
-39.574
-39.529
-39.493
-39.468
-39.450
-39.432
-39.409
-39.384
-39.362
-39.353
-39.362
-39.386
-39.408
-39.401
-39.342
-39.225
-39.068
-38.901
-38.750
-38.628
-38.537
-38.466
-38.404
-38.339
-38.272
-38.212
-38.170
-38.149
-38.142
-38.130
-38.094
-38.026
-37.935
-37.840
-37.759
-37.698
-37.651
-37.612
-37.571
-37.516
-37.436
-37.333
-37.220
-37.118
-37.044
-37.004
-36.991
-36.994
-36.993
-36.975
-36.932
-36.866
-36.780
-36.679
-36.568
-36.456
-36.353
-36.268
-36.202
-36.146
-36.092
-36.035
-35.979
-35.931
-35.892
-35.857
-35.819
-35.770
-35.711
-35.654
-35.620
-35.619
-35.647
-35.681
-35.691
-35.656
-35.575
-35.464
-35.339
-35.210
-35.075
-34.938
-34.807
-34.700
-34.636
-34.617
-34.630
-34.649
-34.659
-34.658
-34.658
-34.668
-34.688
-34.707
-34.714
-34.696
-34.648
-34.574
-34.489
-34.415
-34.372
-34.364
-34.380
-34.396
-34.392
-34.361
-34.316
-34.278
-34.261
-34.272
-34.299
-34.330
-34.354
-34.365
-34.365
-34.357
-34.341
-34.317
-34.280
-34.226
-34.157
-34.078
-34.000
-33.933
-33.883
-33.850
-33.837
-33.842
-33.864
-33.893
-33.920
-33.939
-33.955
-33.977
-34.012
-34.060
-34.111
-34.154
-34.177
-34.171
-34.138
-34.085
-34.028
-33.979
-33.945
-33.920
-33.898
-33.872
-33.836
-33.781
-33.700
-33.598
-33.497
-33.431
-33.417
-33.442
-33.474
-33.482
-33.467
-33.450
-33.446
-33.448
-33.423
-33.338
-33.181
-32.975
-32.752
-32.536
-32.326
-32.100
-31.820
-31.422
-30.767
-29.531
-27.176
-23.491
-19.070
-14.647
-10.632
-7.201
-4.425
-2.338
-0.953
-0.278
-0.315
-1.064
-2.521
-4.679
-7.521
-11.011
-15.064
-19.485
-23.831
-27.373
-29.607
-30.784
-31.412
-31.794
-32.071
-32.305
-32.530
-32.761
-32.994
-33.204
-33.358
-33.436
-33.449
-33.432
-33.415
-33.403
-33.381
-33.334
-33.271
-33.230
-33.248
-33.335
-33.470
-33.614
-33.737
-33.833
-33.905
-33.961
-34.003
-34.033
-34.057
-34.081
-34.106
-34.123
-34.126
-34.107
-34.069
-34.015
-33.951
-33.888
-33.838
-33.808
-33.793
-33.783
-33.771
-33.757
-33.747
-33.749
-33.766
-33.802
-33.859
-33.937
-34.026
-34.114
-34.188
-34.245
-34.291
-34.330
-34.362
-34.381
-34.383
-34.368
-34.342
-34.313
-34.292
-34.286
-34.299
-34.325
-34.357
-34.384
-34.396
-34.392
-34.378
-34.370
-34.381
-34.415
-34.460
-34.499
-34.523
-34.537
-34.548
-34.564
-34.587
-34.617
-34.651
-34.682
-34.706
-34.725
-34.752
-34.801
-34.877
-34.977
-35.088
-35.195
-35.291
-35.374
-35.442
-35.492
-35.523
-35.535
-35.540
-35.557
-35.602
-35.679
-35.775
-35.864
-35.929
-35.970
-36.003
-36.045
-36.106
-36.180
-36.255
-36.321
-36.373
-36.417
-36.465
-36.524
-36.592
-36.663
-36.729
-36.789
-36.845
-36.893
-36.930
-36.956
-36.979
-37.009
-37.052
-37.108
-37.167
-37.219
-37.260
-37.296
-37.339
-37.402
-37.495
-37.614
-37.744
-37.864
-37.958
-38.019
-38.053
-38.075
-38.101
-38.147
-38.219
-38.307
-38.394
-38.460
-38.499
-38.515
-38.527
-38.555
-38.615
-38.712
-38.837
-38.972
-39.097
-39.197
-39.268
-39.317
-39.357
-39.397
-39.444
-39.499
-39.561
-39.624
-39.676
-39.696
-39.675
-39.624
-39.570
-39.543
-39.562
-39.631
-39.736
-39.859
-39.978
-40.079
-40.153
-40.207
-40.253
-40.306
-40.372
-40.447
-40.517
-40.566
-40.587
-40.584
-40.568
-40.550
-40.536
-40.533
-40.546
-40.578
-40.623
-40.672
-40.713
-40.743
-40.766
-40.787
-40.815
-40.853
-40.905
-40.968
-41.032
-41.082
-41.111
-41.126
-41.148
-41.191
-41.257
-41.330
-41.392
-41.431
-41.450
-41.462
-41.479
-41.507
-41.544
-41.584
-41.628
-41.680
-41.731
-41.738
-41.576
-41.018
-39.855
-38.175
-36.357
-34.778
-33.667
-33.130
-33.197
-33.840
-34.935
-36.188
-37.105
-37.345
-37.141
-36.970
-37.131
-37.708
-38.638
-39.746
-40.788
-41.566
-42.038
-42.283
-42.398
-42.438
-42.429
-42.389
-42.339
-42.301
-42.287
-42.303
-42.340
-42.386
-42.432
-42.473
-42.510
-42.541
-42.563
-42.578
-42.595
-42.626
-42.680
-42.752
-42.828
-42.893
-42.935
-42.953
-42.952
-42.946
-42.950
-42.973
-43.013
-43.056
-43.083
-43.083
-43.055
-43.010
-42.964
-42.932
-42.922
-42.933
-42.960
-42.994
-43.023
-43.035
-43.018
-42.958
-42.856
-42.728
-42.621
-42.586
-42.655
-42.819
-43.023
-43.196
-43.290
-43.305
-43.277
-43.249
-43.248
-43.279
-43.331
-43.392
-43.453
-43.508
-43.552
-43.581
-43.595
-43.599
-43.597
-43.589
-43.576
-43.561
-43.551
-43.552
-43.561
-43.571
-43.576
-43.582
-43.595
-43.618
-43.644
-43.665
-43.677
-43.683
-43.685
-43.680
-43.663
-43.638
-43.620
-43.623
-43.648
-43.682
-43.704
-43.700
-43.672
-43.635
-43.610
-43.613
-43.648
-43.708
-43.771
-43.821
-43.853
-43.870
-43.879
-43.884
-43.889
-43.896
-43.905
-43.917
-43.932
-43.954
-43.982
-44.010
-44.027
-44.026
-44.010
-43.989
-43.974
-43.973
-43.983
-43.996
-43.997
-43.983
-43.957
-43.932
-43.922
-43.934
-43.966
-44.008
-44.047
-44.073
-44.080
-44.072
-44.059
-44.054
-44.064
-44.081
-44.096
-44.103
-44.105
-44.106
-44.108
-44.115
-44.126
-44.146
-44.175
-44.218
-44.276
-44.344
-44.411
-44.461
-44.485
-44.484
-44.461
-44.419
-44.353
-44.264
-44.165
-44.080
-44.034
-44.039
-44.091
-44.167
-44.241
-44.293
-44.323
-44.342
-44.359
-44.378
-44.391
-44.389
-44.363
-44.318
-44.264
-44.221
-44.203
-44.212
-44.244
-44.292
-44.348
-44.404
-44.454
-44.493
-44.520
-44.540
-44.557
-44.566
-44.558
-44.529
-44.485
-44.440
-44.412
-44.407
-44.422
-44.447
-44.471
-44.487
-44.499
-44.511
-44.528
-44.547
-44.561
-44.561
-44.548
-44.523
-44.489
-44.449
-44.405
-44.364
-44.332
-44.316
-44.312
-44.315
-44.317
-44.322
-44.337
-44.373
-44.431
-44.496
-44.547
-44.561
-44.523
-44.411
-44.193
-43.841
-43.369
-42.868
-42.474
-42.311
-42.440
-42.841
-43.409
-43.983
-44.419
-44.664
-44.759
-44.767
-44.728
-44.643
-44.485
-44.207
-43.780
-43.240
-42.705
-42.320
-42.190
-42.347
-42.741
-43.255
-43.743
-44.101
-44.309
-44.409
-44.456
-44.486
-44.515
-44.550
-44.586
-44.616
-44.633
-44.632
-44.617
-44.595
-44.571
-44.547
-44.525
-44.509
